#   1 NUMBER                 Running object number                                     
#   2 FLUX_BEST              Best of FLUX_AUTO and FLUX_ISOCOR                          [count]
#   3 X_IMAGE                Object position along x                                    [pixel]
#   4 Y_IMAGE                Object position along y                                    [pixel]
#   5 A_IMAGE                Profile RMS along major axis                               [pixel]
#   6 B_IMAGE                Profile RMS along minor axis                               [pixel]
#   7 THETA_IMAGE            Position angle (CCW/x)                                     [deg]
         1     166.8475   1724.015    744.823    95.568    10.701  89.9
         2     584.5637   1676.394    532.992    86.305    13.959 -82.1
         3     23.85301   1256.228    300.280    55.982     3.223 -85.7
         4     279.0441   1460.728    134.346   117.894    38.665   4.6
         5     243.7769   1709.005    235.378    24.705    21.473 -82.3
         6     545.3489   1046.373     69.196   130.695    45.961 -13.1
         7     359.2569    499.866     61.696    90.418    11.819   6.5
         8     328.2843    618.328     11.428   124.566     7.531  -0.0
         9     368.2795   1340.936    176.869    45.919    12.659  10.8
        10     209.7148    879.029    107.305    33.453     7.473  10.9
        11     66.27811    692.161    312.625    20.357    13.822 -78.1
        12     29.88615    867.136    224.436    18.227    15.313  87.1
        13     55.47966   1116.845    256.426    43.541    15.031  10.1
        14      34.3724    845.800    118.971     5.847     4.334  79.1
        15     73.06301    285.754    256.149     5.820     5.522  21.5
        16     1.244338    321.603     87.423     1.581     1.450 -39.9
        17     27.19658   1061.240    358.710    40.709     6.908  68.5
        18      35.2086    949.292    227.086    12.191     6.888 -81.4
        19     8.553802    526.323    107.868     1.711     1.620  41.7
        20     247.6075   1190.364    350.241    16.778     8.967  28.1
        21     25.89896   1283.433    287.741    27.972     2.673  35.4
        22     232.5494   1191.993    339.991    12.499     7.567  18.0
        23     9.061616    811.126    141.544     3.354     3.186  40.2
        24      9.40859    901.890    158.405     4.594     3.824 -54.2
        25     11.30206   1082.590    162.541     5.807     4.480 -76.0
        26      20.9172    916.821    236.570    12.727     7.562 -68.1
        27     18.26032    943.238    163.201     3.399     2.606  76.9
        28     31.19837    864.405    247.757    12.260     3.761 -79.7
        29     49.50095   1448.463    190.218     9.266     6.277  19.8
        30     1.655996    803.880    205.286     6.705     2.602 -81.7
        31     32.04042    492.048    426.017    35.441    10.908 -37.5
        32     8.289895    573.875    166.026     1.880     1.672  45.0
        33     1.741247    258.770    144.338     1.583     1.319   9.1
        34     42.03111    858.522    246.721     7.818     5.355  76.1
        35     58.82162   1336.310    210.171     6.672     4.649  -0.9
        36     98.22908    353.943    573.464    66.187    27.533  34.2
        37     90.95209   1272.909   1053.324    46.210    13.346  87.8
        38     1.057868    394.057    159.298     1.361     1.331 -14.3
        39     1.262145    568.515    163.022     1.493     1.242 -79.0
        40     18.44872   1177.822    183.562     2.169     1.987 -25.9
        41      1.56557   1212.191    162.866     1.280     1.198  -3.2
        42     12.68664    963.016    189.415     3.212     2.351  69.9
        43     9.487674    878.319    182.088     2.416     1.878  42.0
        44     1.269199    510.608    169.458     1.422     1.358   2.0
        45     9.700129   1024.879    178.883     1.672     1.618  -3.6
        46     8.737893   1072.270    177.977     1.552     1.424  -5.7
        47     8.011581    983.091    178.039     1.482     1.421 -15.9
        48     7.788185   1138.974    178.842     1.513     1.394  -3.4
        49     167.9403   1535.482    331.288    16.094     8.819  14.6
        50   0.08480188    853.420    170.478     0.853     0.818  60.0
        51     44.95855   1665.228    224.623     6.309     4.864 -19.1
        52     31.74288   1244.771    324.352    10.203     4.443   7.7
        53     36.73653   1596.277    209.875    15.061     2.006   5.7
        54    0.1735308    929.360    175.973     0.954     0.889  77.6
        55    0.2331161   1005.191    174.442     1.003     0.917 -23.6
        56     32.56569   1594.204    217.561     9.252     3.062  -2.2
        57    0.1208815   1231.139    175.943     0.723     0.713   3.7
        58     25.03793    825.394    408.245    17.885    11.508  85.9
        59    0.9772013   1167.255    187.937     1.264     1.234  33.9
        60     21.76685   1312.031    231.027     3.204     2.472  84.6
        61     11.80169   1190.606    200.060     1.615     1.545  -0.1
        62      22.6131   1600.540    297.709    20.382    10.271 -19.2
        63     6.495895    949.088    214.637     3.805     1.800 -12.0
        64    0.6208764    869.741    196.160     1.231     1.146  43.9
        65    0.6710064   1148.321    193.928     1.145     1.070 -16.3
        66     1.631704    844.387    208.495     1.526     1.411  31.5
        67     13.68604   1364.037    311.990    17.643     9.035   6.9
        68     2.423261   1136.583    214.971     1.537     1.420 -12.5
        69     1.043828    853.146    210.015     1.399     1.335  30.1
        70     0.096652   1036.472    199.813     0.861     0.718   1.6
        71      0.44847    790.010    210.486     1.166     1.128  76.4
        72     1.447435   1003.667    240.728     5.013     2.674  43.0
        73     1.238002    992.926    244.348     5.194     2.090  55.3
        74     0.449037    793.337    235.990     4.064     1.056 -59.0
        75    0.7043289    810.156    217.316     1.399     1.327  44.8
        76     3.023567   1165.369    223.115     1.535     1.423  -4.2
        77    0.3411894   1205.844    220.718     1.309     1.230  16.2
        78    0.2258468    320.613    223.513     1.707     0.945 -31.5
        79     22.49907   1148.214    309.697     9.258     5.140  -6.5
        80     0.194866    822.637    222.662     1.001     0.867  40.4
        81     54.16813   1720.786    511.545    22.177    11.736  90.0
        82    0.4224894    812.172    229.778     1.342     1.211  33.9
        83     5.556261    284.955    247.082     1.949     1.657 -58.3
        84     3.364496   1036.431    244.092     1.665     1.614 -25.8
        85    0.5469443   1025.058    235.100     1.411     1.336 -10.8
        86     26.40414   1020.305    282.865     2.245     2.185  61.2
        87    0.3588294   1498.571    232.309     1.126     1.016  37.3
        88     8.866188   1512.304    242.793     1.486     1.388  31.6
        89     1.123505   1014.099    252.962     4.996     2.254   5.2
        90     10.49815   1417.561    308.114     5.420     4.244 -23.6
        91     1.315021    990.250    257.059     4.568     2.462 -14.8
        92    0.2449113   1328.050    238.752     1.018     0.924  15.9
        93    0.9995964    809.666    248.184     1.412     1.368 -82.1
        94     1.530397   1292.086    248.394     1.299     1.226  -0.0
        95     3.082555   1513.018    251.915     1.379     1.317  33.5
        96    0.2638902   1055.340    244.870     1.196     1.138 -11.6
        97     134.8348   1532.204    339.881    10.676     7.566  -1.5
        98    0.8849813    976.297    253.085     1.583     1.422 -31.4
        99     18.21161   1410.966    295.724     4.216     2.495 -17.1
       100     11.97394   1337.826    300.338     3.285     3.045 -28.3
       101       3.5493   1068.823    267.140     1.614     1.551   4.6
       102    0.2204394   1549.441    252.840     0.996     0.890  45.6
       103     26.50479   1260.537    345.849     4.449     3.648 -23.7
       104     1.487874   1275.421    263.095     1.353     1.297   7.2
       105    0.2016913   1365.669    259.533     0.916     0.890  42.9
       106    0.3933046   1283.686    265.481     1.138     1.067  16.9
       107      13.7164    902.438    364.044     3.089     2.255  61.7
       108    0.0926443   1473.192    264.797     0.759     0.666  42.5
       109    0.5103748   1373.881    273.319     1.201     1.146  43.4
       110    0.1690366   1019.289    268.463     1.174     0.991  -4.7
       111    0.2378086    781.435    282.562     2.525     0.893 -52.5
       112     0.316923    994.702    269.062     1.059     0.894 -50.3
       113    0.4848837   1655.536    276.742     1.213     1.130  36.7
       114     0.888379    872.383    297.387     2.086     1.477  72.7
       115     4.146545    292.741    335.497     7.354     4.260  48.4
       116      1.22855    817.977    288.936     2.285     1.508  47.7
       117     4.714674   1299.670    292.344     1.706     1.559  20.8
       118    0.7796615   1357.823    282.758     1.408     1.282  30.7
       119    0.2820642   1567.201    278.139     1.171     1.067  43.7
       120     10.42952   1701.117    373.658    10.644     2.972 -74.3
       121      3.41057    305.942    321.543     5.523     5.038 -63.0
       122    0.5488958   1466.445    304.640     2.295     1.729  21.8
       123      2.86769   1461.206    313.990     2.487     2.227 -41.9
       124      0.14992    941.565    285.006     1.079     0.937  87.8
       125      15.8837   1007.283    316.407     2.047     1.890  11.3
       126    0.3606829    878.333    292.888     1.636     1.329  66.3
       127    0.3866739    836.102    288.743     1.273     1.244 -80.6
       128    0.4003618   1087.464    287.212     1.158     1.095   9.5
       129     5.240502    716.976    364.781     7.592     4.912 -57.6
       130    0.5080852    793.091    290.835     1.238     0.912  89.7
       131     2.118959   1228.576    301.702     1.639     1.519  19.8
       132     3.251938    746.492    342.579     9.092     3.266 -26.6
       133     10.81164   1027.389    312.283     2.059     1.709 -22.8
       134     2.591431    829.453    303.196     1.555     1.446  55.1
       135    0.1810601    912.012    292.533     1.028     1.010   8.2
       136     26.11002    912.861    489.857    17.496    13.232  -6.4
       137    0.6494265    760.560    317.416     2.884     2.193 -68.5
       138     2.172486    730.144    350.813     5.225     3.088 -60.5
       139     11.95302   1236.933    360.608     4.088     3.002 -59.1
       140    0.5371701   1103.416    307.252     1.235     1.180 -45.6
       141    0.7030391    991.527    308.483     1.360     1.270   9.9
       142     1.834666    631.731    319.307     1.601     1.501  52.9
       143    0.7463362    956.862    311.821     1.279     1.240  29.9
       144    0.3853335    774.226    319.164     2.468     1.143 -46.8
       145     3.652572   1014.891    331.900     1.677     1.587 -37.7
       146      11.9563   1225.400    351.379     3.290     2.583 -45.5
       147      26.1347   1320.114    361.249     2.793     2.379 -32.9
       148   0.09081191    922.784    312.538     0.918     0.718 -89.1
       149    0.4050036   1464.422    325.453     2.193     1.525  34.9
       150     7.126115   1307.562    353.705     1.950     1.788 -18.0
       151       1.8521   1348.514    336.928     1.827     1.604 -22.3
       152       9.5223   1190.672    398.002     6.534     3.263 -47.3
       153    0.2093476    885.875    326.116     1.223     1.052  52.1
       154     16.54975   1308.265    430.986     5.733     5.528 -77.0
       155     2.149906    953.044    336.450     1.429     1.376  52.1
       156     10.11823   1165.429    386.790     6.030     4.441 -75.2
       157    0.3702815   1646.423    330.942     1.113     1.010  70.9
       158     13.55911    848.493    418.633     5.069     3.677  88.2
       159   0.05861279    267.134    326.848     0.787     0.659  45.1
       160    0.2758319   1670.082    333.910     1.051     0.922  50.4
       161    0.1008774    777.178    333.296     0.940     0.828  70.5
       162     17.45884   1136.872    392.657     2.536     2.230 -66.9
       163    0.3820509   1030.941    339.448     1.274     1.199  -8.3
       164    0.3120204    849.139    339.469     1.159     1.109  81.3
       165     16.50892   1610.012    388.527     3.269     2.924 -49.7
       166    0.4352846    813.507    343.843     1.762     0.993 -89.6
       167    0.5660797   1651.047    338.917     1.190     1.083  24.5
       168     4.073243    735.860    358.428     1.653     1.632 -78.8
       169     4.656845   1641.885    356.109     1.719     1.451  74.1
       170     1.669448   1434.033    347.621     1.498     1.429  13.6
       171     0.746223   1660.289    344.932     1.245     1.138  60.5
       172    0.2717453    875.059    346.987     1.407     1.344 -23.7
       173    0.6663671   1356.901    349.448     1.334     1.294  17.7
       174    0.1914367   1477.270    348.523     1.166     1.055  45.8
       175     44.47224   1067.575    455.242     6.769     3.956  20.9
       176    0.5187973    880.109    349.361     1.564     1.299  55.5
       177     0.144856    493.649    344.622     1.031     0.940 -32.9
       178    0.7395433   1043.242    352.562     1.436     1.313 -12.4
       179     6.394012   1020.149    359.113     1.520     1.462 -38.7
       180     5.162242    778.225    373.773     1.840     1.658  67.4
       181   0.06320869    985.045    346.715     0.706     0.642  -1.8
       182     0.355106   1288.775    353.267     1.162     1.106  17.1
       183    0.1276327   1294.232    350.669     1.120     0.933  -5.4
       184     14.28417    997.347    394.448     2.134     2.053  58.5
       185    0.1222829   1486.162    352.278     1.034     0.869  27.3
       186     2.832043   1452.208    365.764     1.467     1.457  78.3
       187    0.3755737    782.281    358.297     1.352     1.224 -45.5
       188    0.8773691    851.831    367.327     2.103     1.323  36.7
       189     0.590109   1459.967    363.040     1.344     1.248  17.0
       190     1.392504    392.740    365.233     1.435     1.397  82.5
       191   0.09745166   1028.324    356.347     0.972     0.851  39.4
       192     16.24863    751.858    440.033     3.427     2.705  50.2
       193     6.269512   1226.026    410.865     1.803     1.618  44.5
       194     3.793833   1017.986    370.711     1.487     1.436 -15.3
       195    0.3830459    864.106    366.313     2.951     1.279 -18.4
       196    0.3020702   1303.847    365.048     1.307     1.192  58.3
       197    0.3982373    982.145    364.132     1.838     1.113  18.5
       198     5.300186    948.282    374.895     1.570     1.522  69.9
       199     0.128445   1035.393    363.010     1.021     0.905 -38.0
       200     9.123273   1625.270    381.522     1.713     1.630  13.4
       201     1.721547    881.625    378.097     1.726     1.670  33.9
       202    0.7557966   1292.505    370.180     1.349     1.280 -18.9
       203     0.325785   1339.087    369.468     1.217     1.132  79.2
       204     1.670007   1274.925    423.235     3.529     2.160 -66.5
       205    0.2038968   1090.230    372.315     1.440     1.083  55.2
       206     62.82844    320.609    455.079    46.781    11.900  -7.2
       207     1071.846     68.691    658.655   309.744    33.832  87.7
       208      881.619    185.150    343.281   222.689    31.041 -87.2
       209     550.0986     10.192   1089.054   149.034    11.264  88.8
       210     2.832885    430.043    395.023     3.175     2.712 -51.3
       211    0.6575197    923.698    378.586     1.475     1.325  76.9
       212    0.1820789   1414.074    368.576     1.068     0.940  16.8
       213     1.291709    593.087    453.284     6.083     3.555 -21.8
       214     3.850258    426.248    412.091     4.653     2.995  17.2
       215    0.1664417   1286.444    371.440     1.017     0.925 -35.4
       216     2.422734   1668.910    383.497     1.307     1.223  49.3
       217    0.1280588   1376.703    374.062     0.984     0.822  33.0
       218    0.2548681   1442.129    374.564     1.113     0.954  -7.9
       219     12.83499   1038.909    419.433     2.577     1.845  38.2
       220     33.26437    527.580    430.028     2.821     2.374  41.7
       221     13.92717    978.589    489.248     6.815     5.683  64.2
       222     10.20191   1359.410    400.588     1.796     1.680  19.4
       223    0.6381512    696.109    396.038     3.656     1.764 -35.7
       224     4.679218   1568.497    394.194     1.600     1.559  39.2
       225    0.2220558    710.523    387.308     1.874     1.029 -70.6
       226     12.66713    922.953    416.313     2.037     1.893  89.1
       227    0.5879773    981.320    385.903     1.210     1.175 -39.7
       228    0.2460831    934.428    385.611     1.239     1.040  51.1
       229      0.35812    752.265    386.448     1.287     1.244 -54.1
       230     8.426386   1028.528    400.780     1.673     1.554  -5.3
       231    0.6524683   1533.974    390.840     1.400     1.332  38.7
       232     2.161037   1033.673    433.218     3.432     1.893  67.9
       233      9.22794   1027.210    410.627     1.863     1.714  24.6
       234     3.428533   1469.377    400.065     1.509     1.454  51.5
       235     2.685254   1290.381    424.355     2.706     1.987 -86.7
       236    0.4671964   1119.601    397.498     1.561     1.213 -53.0
       237   0.06329368    740.021    385.495     0.759     0.500   0.2
       238     200.6253    523.447   1133.100    35.262    15.178 -44.5
       239    0.3725366   1524.497    396.715     1.348     1.209 -13.2
       240     0.143769   1364.626    391.629     0.989     0.868  42.9
       241   0.08583622   1438.651    388.927     0.816     0.688 -22.5
       242     9.280987   1120.132    415.071     1.743     1.655 -27.3
       243     0.164864   1700.400    395.090     0.996     0.899  86.7
       244    0.7948422    785.491    409.601     1.718     1.295  78.4
       245   0.07831575   1650.903    391.059     0.753     0.632  45.5
       246      17.8264    809.007    454.242     3.386     2.428  46.8
       247    0.4825268    890.102    399.672     1.345     1.195  55.0
       248    0.4063689   1160.741    400.764     1.242     1.179  -1.8
       249    0.7321962    646.627    420.876     5.548     1.197 -26.7
       250    0.4409104   1289.319    414.688     2.294     1.409 -46.9
       251     1.148902    762.979    409.217     1.802     1.524  14.4
       252    0.6568842   1215.944    412.342     1.696     1.566  25.5
       253    0.8136777   1536.920    412.201     1.570     1.502 -30.4
       254     2.985142    490.920    465.190     6.207     4.141 -69.6
       255     10.14374   1381.980    441.326     2.088     1.864  73.6
       256     0.988355   1496.613    408.862     1.378     1.341  11.8
       257      10.2463   1201.252    425.118     1.916     1.785 -21.4
       258    0.4573875   1532.507    413.967     1.559     1.156  75.8
       259   0.08251894    740.314    400.806     0.891     0.676  21.2
       260    0.2604085    660.432    411.405     2.550     1.473   5.8
       261    0.8912459   1570.237    413.582     1.377     1.307  26.7
       262     2.280842   1498.708    424.304     1.704     1.624  56.8
       263    0.2204251   1369.596    410.241     1.234     1.002  -2.2
       264     8.973104   1070.477    442.626     2.961     2.459  -5.1
       265    0.4582267    773.034    414.490     1.272     1.215  47.8
       266    0.1990139    658.109    417.159     1.542     1.137 -55.8
       267     5.327144    722.041    457.857     2.865     2.555  27.5
       268     9.464642   1455.966    437.174     1.764     1.645  78.0
